# $1 = wavenumber [cm^-1]
# $2 = filter function

791.4990 0
791.4995 0
791.5000 1
791.5005 1
791.5010 1
791.5015 1
791.5020 1
791.5025 1
791.5030 1
791.5035 1
791.5040 1
791.5045 1
791.5050 1
791.5055 1
791.5060 1
791.5065 1
791.5070 1
791.5075 1
791.5080 1
791.5085 1
791.5090 1
791.5095 1
791.5100 1
791.5105 1
791.5110 1
791.5115 1
791.5120 1
791.5125 1
791.5130 1
791.5135 1
791.5140 1
791.5145 1
791.5150 1
791.5155 1
791.5160 1
791.5165 1
791.5170 1
791.5175 1
791.5180 1
791.5185 1
791.5190 1
791.5195 1
791.5200 1
791.5205 1
791.5210 1
791.5215 1
791.5220 1
791.5225 1
791.5230 1
791.5235 1
791.5240 1
791.5245 1
791.5250 1
791.5255 1
791.5260 1
791.5265 1
791.5270 1
791.5275 1
791.5280 1
791.5285 1
791.5290 1
791.5295 1
791.5300 1
791.5305 1
791.5310 1
791.5315 1
791.5320 1
791.5325 1
791.5330 1
791.5335 1
791.5340 1
791.5345 1
791.5350 1
791.5355 1
791.5360 1
791.5365 1
791.5370 1
791.5375 1
791.5380 1
791.5385 1
791.5390 1
791.5395 1
791.5400 1
791.5405 1
791.5410 1
791.5415 1
791.5420 1
791.5425 1
791.5430 1
791.5435 1
791.5440 1
791.5445 1
791.5450 1
791.5455 1
791.5460 1
791.5465 1
791.5470 1
791.5475 1
791.5480 1
791.5485 1
791.5490 1
791.5495 1
791.5500 1
791.5505 1
791.5510 1
791.5515 1
791.5520 1
791.5525 1
791.5530 1
791.5535 1
791.5540 1
791.5545 1
791.5550 1
791.5555 1
791.5560 1
791.5565 1
791.5570 1
791.5575 1
791.5580 1
791.5585 1
791.5590 1
791.5595 1
791.5600 1
791.5605 1
791.5610 1
791.5615 1
791.5620 1
791.5625 1
791.5630 1
791.5635 1
791.5640 1
791.5645 1
791.5650 1
791.5655 1
791.5660 1
791.5665 1
791.5670 1
791.5675 1
791.5680 1
791.5685 1
791.5690 1
791.5695 1
791.5700 1
791.5705 1
791.5710 1
791.5715 1
791.5720 1
791.5725 1
791.5730 1
791.5735 1
791.5740 1
791.5745 1
791.5750 1
791.5755 1
791.5760 1
791.5765 1
791.5770 1
791.5775 1
791.5780 1
791.5785 1
791.5790 1
791.5795 1
791.5800 1
791.5805 1
791.5810 1
791.5815 1
791.5820 1
791.5825 1
791.5830 1
791.5835 1
791.5840 1
791.5845 1
791.5850 1
791.5855 1
791.5860 1
791.5865 1
791.5870 1
791.5875 1
791.5880 1
791.5885 1
791.5890 1
791.5895 1
791.5900 1
791.5905 1
791.5910 1
791.5915 1
791.5920 1
791.5925 1
791.5930 1
791.5935 1
791.5940 1
791.5945 1
791.5950 1
791.5955 1
791.5960 1
791.5965 1
791.5970 1
791.5975 1
791.5980 1
791.5985 1
791.5990 1
791.5995 1
791.6000 1
791.6005 1
791.6010 1
791.6015 1
791.6020 1
791.6025 1
791.6030 1
791.6035 1
791.6040 1
791.6045 1
791.6050 1
791.6055 1
791.6060 1
791.6065 1
791.6070 1
791.6075 1
791.6080 1
791.6085 1
791.6090 1
791.6095 1
791.6100 1
791.6105 1
791.6110 1
791.6115 1
791.6120 1
791.6125 1
791.6130 1
791.6135 1
791.6140 1
791.6145 1
791.6150 1
791.6155 1
791.6160 1
791.6165 1
791.6170 1
791.6175 1
791.6180 1
791.6185 1
791.6190 1
791.6195 1
791.6200 1
791.6205 1
791.6210 1
791.6215 1
791.6220 1
791.6225 1
791.6230 1
791.6235 1
791.6240 1
791.6245 1
791.6250 1
791.6255 1
791.6260 1
791.6265 1
791.6270 1
791.6275 1
791.6280 1
791.6285 1
791.6290 1
791.6295 1
791.6300 1
791.6305 1
791.6310 1
791.6315 1
791.6320 1
791.6325 1
791.6330 1
791.6335 1
791.6340 1
791.6345 1
791.6350 1
791.6355 1
791.6360 1
791.6365 1
791.6370 1
791.6375 1
791.6380 1
791.6385 1
791.6390 1
791.6395 1
791.6400 1
791.6405 1
791.6410 1
791.6415 1
791.6420 1
791.6425 1
791.6430 1
791.6435 1
791.6440 1
791.6445 1
791.6450 1
791.6455 1
791.6460 1
791.6465 1
791.6470 1
791.6475 1
791.6480 1
791.6485 1
791.6490 1
791.6495 1
791.6500 1
791.6505 1
791.6510 1
791.6515 1
791.6520 1
791.6525 1
791.6530 1
791.6535 1
791.6540 1
791.6545 1
791.6550 1
791.6555 1
791.6560 1
791.6565 1
791.6570 1
791.6575 1
791.6580 1
791.6585 1
791.6590 1
791.6595 1
791.6600 1
791.6605 1
791.6610 1
791.6615 1
791.6620 1
791.6625 1
791.6630 1
791.6635 1
791.6640 1
791.6645 1
791.6650 1
791.6655 1
791.6660 1
791.6665 1
791.6670 1
791.6675 1
791.6680 1
791.6685 1
791.6690 1
791.6695 1
791.6700 1
791.6705 1
791.6710 1
791.6715 1
791.6720 1
791.6725 1
791.6730 1
791.6735 1
791.6740 1
791.6745 1
791.6750 1
791.6755 1
791.6760 1
791.6765 1
791.6770 1
791.6775 1
791.6780 1
791.6785 1
791.6790 1
791.6795 1
791.6800 1
791.6805 1
791.6810 1
791.6815 1
791.6820 1
791.6825 1
791.6830 1
791.6835 1
791.6840 1
791.6845 1
791.6850 1
791.6855 1
791.6860 1
791.6865 1
791.6870 1
791.6875 1
791.6880 1
791.6885 1
791.6890 1
791.6895 1
791.6900 1
791.6905 1
791.6910 1
791.6915 1
791.6920 1
791.6925 1
791.6930 1
791.6935 1
791.6940 1
791.6945 1
791.6950 1
791.6955 1
791.6960 1
791.6965 1
791.6970 1
791.6975 1
791.6980 1
791.6985 1
791.6990 1
791.6995 1
791.7000 1
791.7005 1
791.7010 1
791.7015 1
791.7020 1
791.7025 1
791.7030 1
791.7035 1
791.7040 1
791.7045 1
791.7050 1
791.7055 1
791.7060 1
791.7065 1
791.7070 1
791.7075 1
791.7080 1
791.7085 1
791.7090 1
791.7095 1
791.7100 1
791.7105 1
791.7110 1
791.7115 1
791.7120 1
791.7125 1
791.7130 1
791.7135 1
791.7140 1
791.7145 1
791.7150 1
791.7155 1
791.7160 1
791.7165 1
791.7170 1
791.7175 1
791.7180 1
791.7185 1
791.7190 1
791.7195 1
791.7200 1
791.7205 1
791.7210 1
791.7215 1
791.7220 1
791.7225 1
791.7230 1
791.7235 1
791.7240 1
791.7245 1
791.7250 1
791.7255 1
791.7260 1
791.7265 1
791.7270 1
791.7275 1
791.7280 1
791.7285 1
791.7290 1
791.7295 1
791.7300 1
791.7305 1
791.7310 1
791.7315 1
791.7320 1
791.7325 1
791.7330 1
791.7335 1
791.7340 1
791.7345 1
791.7350 1
791.7355 1
791.7360 1
791.7365 1
791.7370 1
791.7375 1
791.7380 1
791.7385 1
791.7390 1
791.7395 1
791.7400 1
791.7405 1
791.7410 1
791.7415 1
791.7420 1
791.7425 1
791.7430 1
791.7435 1
791.7440 1
791.7445 1
791.7450 1
791.7455 1
791.7460 1
791.7465 1
791.7470 1
791.7475 1
791.7480 1
791.7485 1
791.7490 1
791.7495 1
791.7500 1
791.7505 1
791.7510 1
791.7515 1
791.7520 1
791.7525 1
791.7530 1
791.7535 1
791.7540 1
791.7545 1
791.7550 1
791.7555 1
791.7560 1
791.7565 1
791.7570 1
791.7575 1
791.7580 1
791.7585 1
791.7590 1
791.7595 1
791.7600 1
791.7605 1
791.7610 1
791.7615 1
791.7620 1
791.7625 1
791.7630 1
791.7635 1
791.7640 1
791.7645 1
791.7650 1
791.7655 1
791.7660 1
791.7665 1
791.7670 1
791.7675 1
791.7680 1
791.7685 1
791.7690 1
791.7695 1
791.7700 1
791.7705 1
791.7710 1
791.7715 1
791.7720 1
791.7725 1
791.7730 1
791.7735 1
791.7740 1
791.7745 1
791.7750 1
791.7755 1
791.7760 1
791.7765 1
791.7770 1
791.7775 1
791.7780 1
791.7785 1
791.7790 1
791.7795 1
791.7800 1
791.7805 1
791.7810 1
791.7815 1
791.7820 1
791.7825 1
791.7830 1
791.7835 1
791.7840 1
791.7845 1
791.7850 1
791.7855 1
791.7860 1
791.7865 1
791.7870 1
791.7875 1
791.7880 1
791.7885 1
791.7890 1
791.7895 1
791.7900 1
791.7905 1
791.7910 1
791.7915 1
791.7920 1
791.7925 1
791.7930 1
791.7935 1
791.7940 1
791.7945 1
791.7950 1
791.7955 1
791.7960 1
791.7965 1
791.7970 1
791.7975 1
791.7980 1
791.7985 1
791.7990 1
791.7995 1
791.8000 1
791.8005 1
791.8010 1
791.8015 1
791.8020 1
791.8025 1
791.8030 1
791.8035 1
791.8040 1
791.8045 1
791.8050 1
791.8055 1
791.8060 1
791.8065 1
791.8070 1
791.8075 1
791.8080 1
791.8085 1
791.8090 1
791.8095 1
791.8100 1
791.8105 1
791.8110 1
791.8115 1
791.8120 1
791.8125 1
791.8130 1
791.8135 1
791.8140 1
791.8145 1
791.8150 1
791.8155 1
791.8160 1
791.8165 1
791.8170 1
791.8175 1
791.8180 1
791.8185 1
791.8190 1
791.8195 1
791.8200 1
791.8205 1
791.8210 1
791.8215 1
791.8220 1
791.8225 1
791.8230 1
791.8235 1
791.8240 1
791.8245 1
791.8250 1
791.8255 1
791.8260 1
791.8265 1
791.8270 1
791.8275 1
791.8280 1
791.8285 1
791.8290 1
791.8295 1
791.8300 1
791.8305 1
791.8310 1
791.8315 1
791.8320 1
791.8325 1
791.8330 1
791.8335 1
791.8340 1
791.8345 1
791.8350 1
791.8355 1
791.8360 1
791.8365 1
791.8370 1
791.8375 1
791.8380 1
791.8385 1
791.8390 1
791.8395 1
791.8400 1
791.8405 1
791.8410 1
791.8415 1
791.8420 1
791.8425 1
791.8430 1
791.8435 1
791.8440 1
791.8445 1
791.8450 1
791.8455 1
791.8460 1
791.8465 1
791.8470 1
791.8475 1
791.8480 1
791.8485 1
791.8490 1
791.8495 1
791.8500 1
791.8505 1
791.8510 1
791.8515 1
791.8520 1
791.8525 1
791.8530 1
791.8535 1
791.8540 1
791.8545 1
791.8550 1
791.8555 1
791.8560 1
791.8565 1
791.8570 1
791.8575 1
791.8580 1
791.8585 1
791.8590 1
791.8595 1
791.8600 1
791.8605 1
791.8610 1
791.8615 1
791.8620 1
791.8625 1
791.8630 1
791.8635 1
791.8640 1
791.8645 1
791.8650 1
791.8655 1
791.8660 1
791.8665 1
791.8670 1
791.8675 1
791.8680 1
791.8685 1
791.8690 1
791.8695 1
791.8700 1
791.8705 1
791.8710 1
791.8715 1
791.8720 1
791.8725 1
791.8730 1
791.8735 1
791.8740 1
791.8745 1
791.8750 1
791.8755 1
791.8760 1
791.8765 1
791.8770 1
791.8775 1
791.8780 1
791.8785 1
791.8790 1
791.8795 1
791.8800 1
791.8805 1
791.8810 1
791.8815 1
791.8820 1
791.8825 1
791.8830 1
791.8835 1
791.8840 1
791.8845 1
791.8850 1
791.8855 1
791.8860 1
791.8865 1
791.8870 1
791.8875 1
791.8880 1
791.8885 1
791.8890 1
791.8895 1
791.8900 1
791.8905 1
791.8910 1
791.8915 1
791.8920 1
791.8925 1
791.8930 1
791.8935 1
791.8940 1
791.8945 1
791.8950 1
791.8955 1
791.8960 1
791.8965 1
791.8970 1
791.8975 1
791.8980 1
791.8985 1
791.8990 1
791.8995 1
791.9000 1
791.9005 1
791.9010 1
791.9015 1
791.9020 1
791.9025 1
791.9030 1
791.9035 1
791.9040 1
791.9045 1
791.9050 1
791.9055 1
791.9060 1
791.9065 1
791.9070 1
791.9075 1
791.9080 1
791.9085 1
791.9090 1
791.9095 1
791.9100 1
791.9105 1
791.9110 1
791.9115 1
791.9120 1
791.9125 1
791.9130 1
791.9135 1
791.9140 1
791.9145 1
791.9150 1
791.9155 1
791.9160 1
791.9165 1
791.9170 1
791.9175 1
791.9180 1
791.9185 1
791.9190 1
791.9195 1
791.9200 1
791.9205 1
791.9210 1
791.9215 1
791.9220 1
791.9225 1
791.9230 1
791.9235 1
791.9240 1
791.9245 1
791.9250 1
791.9255 1
791.9260 1
791.9265 1
791.9270 1
791.9275 1
791.9280 1
791.9285 1
791.9290 1
791.9295 1
791.9300 1
791.9305 1
791.9310 1
791.9315 1
791.9320 1
791.9325 1
791.9330 1
791.9335 1
791.9340 1
791.9345 1
791.9350 1
791.9355 1
791.9360 1
791.9365 1
791.9370 1
791.9375 1
791.9380 1
791.9385 1
791.9390 1
791.9395 1
791.9400 1
791.9405 1
791.9410 1
791.9415 1
791.9420 1
791.9425 1
791.9430 1
791.9435 1
791.9440 1
791.9445 1
791.9450 1
791.9455 1
791.9460 1
791.9465 1
791.9470 1
791.9475 1
791.9480 1
791.9485 1
791.9490 1
791.9495 1
791.9500 1
791.9505 1
791.9510 1
791.9515 1
791.9520 1
791.9525 1
791.9530 1
791.9535 1
791.9540 1
791.9545 1
791.9550 1
791.9555 1
791.9560 1
791.9565 1
791.9570 1
791.9575 1
791.9580 1
791.9585 1
791.9590 1
791.9595 1
791.9600 1
791.9605 1
791.9610 1
791.9615 1
791.9620 1
791.9625 1
791.9630 1
791.9635 1
791.9640 1
791.9645 1
791.9650 1
791.9655 1
791.9660 1
791.9665 1
791.9670 1
791.9675 1
791.9680 1
791.9685 1
791.9690 1
791.9695 1
791.9700 1
791.9705 1
791.9710 1
791.9715 1
791.9720 1
791.9725 1
791.9730 1
791.9735 1
791.9740 1
791.9745 1
791.9750 1
791.9755 1
791.9760 1
791.9765 1
791.9770 1
791.9775 1
791.9780 1
791.9785 1
791.9790 1
791.9795 1
791.9800 1
791.9805 1
791.9810 1
791.9815 1
791.9820 1
791.9825 1
791.9830 1
791.9835 1
791.9840 1
791.9845 1
791.9850 1
791.9855 1
791.9860 1
791.9865 1
791.9870 1
791.9875 1
791.9880 1
791.9885 1
791.9890 1
791.9895 1
791.9900 1
791.9905 1
791.9910 1
791.9915 1
791.9920 1
791.9925 1
791.9930 1
791.9935 1
791.9940 1
791.9945 1
791.9950 1
791.9955 1
791.9960 1
791.9965 1
791.9970 1
791.9975 1
791.9980 1
791.9985 1
791.9990 1
791.9995 1
792.0000 1
792.0005 1
792.0010 1
792.0015 1
792.0020 1
792.0025 1
792.0030 1
792.0035 1
792.0040 1
792.0045 1
792.0050 1
792.0055 1
792.0060 1
792.0065 1
792.0070 1
792.0075 1
792.0080 1
792.0085 1
792.0090 1
792.0095 1
792.0100 1
792.0105 1
792.0110 1
792.0115 1
792.0120 1
792.0125 1
792.0130 1
792.0135 1
792.0140 1
792.0145 1
792.0150 1
792.0155 1
792.0160 1
792.0165 1
792.0170 1
792.0175 1
792.0180 1
792.0185 1
792.0190 1
792.0195 1
792.0200 1
792.0205 1
792.0210 1
792.0215 1
792.0220 1
792.0225 1
792.0230 1
792.0235 1
792.0240 1
792.0245 1
792.0250 1
792.0255 1
792.0260 1
792.0265 1
792.0270 1
792.0275 1
792.0280 1
792.0285 1
792.0290 1
792.0295 1
792.0300 1
792.0305 1
792.0310 1
792.0315 1
792.0320 1
792.0325 1
792.0330 1
792.0335 1
792.0340 1
792.0345 1
792.0350 1
792.0355 1
792.0360 1
792.0365 1
792.0370 1
792.0375 1
792.0380 1
792.0385 1
792.0390 1
792.0395 1
792.0400 1
792.0405 1
792.0410 1
792.0415 1
792.0420 1
792.0425 1
792.0430 1
792.0435 1
792.0440 1
792.0445 1
792.0450 1
792.0455 1
792.0460 1
792.0465 1
792.0470 1
792.0475 1
792.0480 1
792.0485 1
792.0490 1
792.0495 1
792.0500 1
792.0505 1
792.0510 1
792.0515 1
792.0520 1
792.0525 1
792.0530 1
792.0535 1
792.0540 1
792.0545 1
792.0550 1
792.0555 1
792.0560 1
792.0565 1
792.0570 1
792.0575 1
792.0580 1
792.0585 1
792.0590 1
792.0595 1
792.0600 1
792.0605 1
792.0610 1
792.0615 1
792.0620 1
792.0625 1
792.0630 1
792.0635 1
792.0640 1
792.0645 1
792.0650 1
792.0655 1
792.0660 1
792.0665 1
792.0670 1
792.0675 1
792.0680 1
792.0685 1
792.0690 1
792.0695 1
792.0700 1
792.0705 1
792.0710 1
792.0715 1
792.0720 1
792.0725 1
792.0730 1
792.0735 1
792.0740 1
792.0745 1
792.0750 1
792.0755 1
792.0760 1
792.0765 1
792.0770 1
792.0775 1
792.0780 1
792.0785 1
792.0790 1
792.0795 1
792.0800 1
792.0805 1
792.0810 1
792.0815 1
792.0820 1
792.0825 1
792.0830 1
792.0835 1
792.0840 1
792.0845 1
792.0850 1
792.0855 1
792.0860 1
792.0865 1
792.0870 1
792.0875 1
792.0880 1
792.0885 1
792.0890 1
792.0895 1
792.0900 1
792.0905 1
792.0910 1
792.0915 1
792.0920 1
792.0925 1
792.0930 1
792.0935 1
792.0940 1
792.0945 1
792.0950 1
792.0955 1
792.0960 1
792.0965 1
792.0970 1
792.0975 1
792.0980 1
792.0985 1
792.0990 1
792.0995 1
792.1000 1
792.1005 1
792.1010 1
792.1015 1
792.1020 1
792.1025 1
792.1030 1
792.1035 1
792.1040 1
792.1045 1
792.1050 1
792.1055 1
792.1060 1
792.1065 1
792.1070 1
792.1075 1
792.1080 1
792.1085 1
792.1090 1
792.1095 1
792.1100 1
792.1105 1
792.1110 1
792.1115 1
792.1120 1
792.1125 1
792.1130 1
792.1135 1
792.1140 1
792.1145 1
792.1150 1
792.1155 1
792.1160 1
792.1165 1
792.1170 1
792.1175 1
792.1180 1
792.1185 1
792.1190 1
792.1195 1
792.1200 1
792.1205 1
792.1210 1
792.1215 1
792.1220 1
792.1225 1
792.1230 1
792.1235 1
792.1240 1
792.1245 1
792.1250 1
792.1255 1
792.1260 1
792.1265 1
792.1270 1
792.1275 1
792.1280 1
792.1285 1
792.1290 1
792.1295 1
792.1300 1
792.1305 1
792.1310 1
792.1315 1
792.1320 1
792.1325 1
792.1330 1
792.1335 1
792.1340 1
792.1345 1
792.1350 1
792.1355 1
792.1360 1
792.1365 1
792.1370 1
792.1375 1
792.1380 1
792.1385 1
792.1390 1
792.1395 1
792.1400 1
792.1405 1
792.1410 1
792.1415 1
792.1420 1
792.1425 1
792.1430 1
792.1435 1
792.1440 1
792.1445 1
792.1450 1
792.1455 1
792.1460 1
792.1465 1
792.1470 1
792.1475 1
792.1480 1
792.1485 1
792.1490 1
792.1495 1
792.1500 1
792.1505 1
792.1510 1
792.1515 1
792.1520 1
792.1525 1
792.1530 1
792.1535 1
792.1540 1
792.1545 1
792.1550 1
792.1555 1
792.1560 1
792.1565 1
792.1570 1
792.1575 1
792.1580 1
792.1585 1
792.1590 1
792.1595 1
792.1600 1
792.1605 1
792.1610 1
792.1615 1
792.1620 1
792.1625 1
792.1630 1
792.1635 1
792.1640 1
792.1645 1
792.1650 1
792.1655 1
792.1660 1
792.1665 1
792.1670 1
792.1675 1
792.1680 1
792.1685 1
792.1690 1
792.1695 1
792.1700 1
792.1705 1
792.1710 1
792.1715 1
792.1720 1
792.1725 1
792.1730 1
792.1735 1
792.1740 1
792.1745 1
792.1750 1
792.1755 1
792.1760 1
792.1765 1
792.1770 1
792.1775 1
792.1780 1
792.1785 1
792.1790 1
792.1795 1
792.1800 1
792.1805 1
792.1810 1
792.1815 1
792.1820 1
792.1825 1
792.1830 1
792.1835 1
792.1840 1
792.1845 1
792.1850 1
792.1855 1
792.1860 1
792.1865 1
792.1870 1
792.1875 1
792.1880 1
792.1885 1
792.1890 1
792.1895 1
792.1900 1
792.1905 1
792.1910 1
792.1915 1
792.1920 1
792.1925 1
792.1930 1
792.1935 1
792.1940 1
792.1945 1
792.1950 1
792.1955 1
792.1960 1
792.1965 1
792.1970 1
792.1975 1
792.1980 1
792.1985 1
792.1990 1
792.1995 1
792.2000 1
792.2005 1
792.2010 1
792.2015 1
792.2020 1
792.2025 1
792.2030 1
792.2035 1
792.2040 1
792.2045 1
792.2050 1
792.2055 1
792.2060 1
792.2065 1
792.2070 1
792.2075 1
792.2080 1
792.2085 1
792.2090 1
792.2095 1
792.2100 1
792.2105 1
792.2110 1
792.2115 1
792.2120 1
792.2125 1
792.2130 1
792.2135 1
792.2140 1
792.2145 1
792.2150 1
792.2155 1
792.2160 1
792.2165 1
792.2170 1
792.2175 1
792.2180 1
792.2185 1
792.2190 1
792.2195 1
792.2200 1
792.2205 1
792.2210 1
792.2215 1
792.2220 1
792.2225 1
792.2230 1
792.2235 1
792.2240 1
792.2245 1
792.2250 1
792.2255 1
792.2260 1
792.2265 1
792.2270 1
792.2275 1
792.2280 1
792.2285 1
792.2290 1
792.2295 1
792.2300 1
792.2305 1
792.2310 1
792.2315 1
792.2320 1
792.2325 1
792.2330 1
792.2335 1
792.2340 1
792.2345 1
792.2350 1
792.2355 1
792.2360 1
792.2365 1
792.2370 1
792.2375 1
792.2380 1
792.2385 1
792.2390 1
792.2395 1
792.2400 1
792.2405 1
792.2410 1
792.2415 1
792.2420 1
792.2425 1
792.2430 1
792.2435 1
792.2440 1
792.2445 1
792.2450 1
792.2455 1
792.2460 1
792.2465 1
792.2470 1
792.2475 1
792.2480 1
792.2485 1
792.2490 1
792.2495 1
792.2500 1
792.2505 1
792.2510 1
792.2515 1
792.2520 1
792.2525 1
792.2530 1
792.2535 1
792.2540 1
792.2545 1
792.2550 1
792.2555 1
792.2560 1
792.2565 1
792.2570 1
792.2575 1
792.2580 1
792.2585 1
792.2590 1
792.2595 1
792.2600 1
792.2605 1
792.2610 1
792.2615 1
792.2620 1
792.2625 1
792.2630 1
792.2635 1
792.2640 1
792.2645 1
792.2650 1
792.2655 1
792.2660 1
792.2665 1
792.2670 1
792.2675 1
792.2680 1
792.2685 1
792.2690 1
792.2695 1
792.2700 1
792.2705 1
792.2710 1
792.2715 1
792.2720 1
792.2725 1
792.2730 1
792.2735 1
792.2740 1
792.2745 1
792.2750 1
792.2755 1
792.2760 1
792.2765 1
792.2770 1
792.2775 1
792.2780 1
792.2785 1
792.2790 1
792.2795 1
792.2800 1
792.2805 1
792.2810 1
792.2815 1
792.2820 1
792.2825 1
792.2830 1
792.2835 1
792.2840 1
792.2845 1
792.2850 1
792.2855 1
792.2860 1
792.2865 1
792.2870 1
792.2875 1
792.2880 1
792.2885 1
792.2890 1
792.2895 1
792.2900 1
792.2905 1
792.2910 1
792.2915 1
792.2920 1
792.2925 1
792.2930 1
792.2935 1
792.2940 1
792.2945 1
792.2950 1
792.2955 1
792.2960 1
792.2965 1
792.2970 1
792.2975 1
792.2980 1
792.2985 1
792.2990 1
792.2995 1
792.3000 1
792.3005 1
792.3010 1
792.3015 1
792.3020 1
792.3025 1
792.3030 1
792.3035 1
792.3040 1
792.3045 1
792.3050 1
792.3055 1
792.3060 1
792.3065 1
792.3070 1
792.3075 1
792.3080 1
792.3085 1
792.3090 1
792.3095 1
792.3100 1
792.3105 1
792.3110 1
792.3115 1
792.3120 1
792.3125 1
792.3130 1
792.3135 1
792.3140 1
792.3145 1
792.3150 1
792.3155 1
792.3160 1
792.3165 1
792.3170 1
792.3175 1
792.3180 1
792.3185 1
792.3190 1
792.3195 1
792.3200 1
792.3205 1
792.3210 1
792.3215 1
792.3220 1
792.3225 1
792.3230 1
792.3235 1
792.3240 1
792.3245 1
792.3250 1
792.3255 1
792.3260 1
792.3265 1
792.3270 1
792.3275 1
792.3280 1
792.3285 1
792.3290 1
792.3295 1
792.3300 1
792.3305 1
792.3310 1
792.3315 1
792.3320 1
792.3325 1
792.3330 1
792.3335 1
792.3340 1
792.3345 1
792.3350 1
792.3355 1
792.3360 1
792.3365 1
792.3370 1
792.3375 1
792.3380 1
792.3385 1
792.3390 1
792.3395 1
792.3400 1
792.3405 1
792.3410 1
792.3415 1
792.3420 1
792.3425 1
792.3430 1
792.3435 1
792.3440 1
792.3445 1
792.3450 1
792.3455 1
792.3460 1
792.3465 1
792.3470 1
792.3475 1
792.3480 1
792.3485 1
792.3490 1
792.3495 1
792.3500 1
792.3505 1
792.3510 1
792.3515 1
792.3520 1
792.3525 1
792.3530 1
792.3535 1
792.3540 1
792.3545 1
792.3550 1
792.3555 1
792.3560 1
792.3565 1
792.3570 1
792.3575 1
792.3580 1
792.3585 1
792.3590 1
792.3595 1
792.3600 1
792.3605 1
792.3610 1
792.3615 1
792.3620 1
792.3625 1
792.3630 1
792.3635 1
792.3640 1
792.3645 1
792.3650 1
792.3655 1
792.3660 1
792.3665 1
792.3670 1
792.3675 1
792.3680 1
792.3685 1
792.3690 1
792.3695 1
792.3700 1
792.3705 1
792.3710 1
792.3715 1
792.3720 1
792.3725 1
792.3730 1
792.3735 1
792.3740 1
792.3745 1
792.3750 1
792.3755 1
792.3760 1
792.3765 1
792.3770 1
792.3775 1
792.3780 1
792.3785 1
792.3790 1
792.3795 1
792.3800 1
792.3805 1
792.3810 1
792.3815 1
792.3820 1
792.3825 1
792.3830 1
792.3835 1
792.3840 1
792.3845 1
792.3850 1
792.3855 1
792.3860 1
792.3865 1
792.3870 1
792.3875 1
792.3880 1
792.3885 1
792.3890 1
792.3895 1
792.3900 1
792.3905 1
792.3910 1
792.3915 1
792.3920 1
792.3925 1
792.3930 1
792.3935 1
792.3940 1
792.3945 1
792.3950 1
792.3955 1
792.3960 1
792.3965 1
792.3970 1
792.3975 1
792.3980 1
792.3985 1
792.3990 1
792.3995 1
792.4000 1
792.4005 1
792.4010 1
792.4015 1
792.4020 1
792.4025 1
792.4030 1
792.4035 1
792.4040 1
792.4045 1
792.4050 1
792.4055 1
792.4060 1
792.4065 1
792.4070 1
792.4075 1
792.4080 1
792.4085 1
792.4090 1
792.4095 1
792.4100 1
792.4105 1
792.4110 1
792.4115 1
792.4120 1
792.4125 1
792.4130 1
792.4135 1
792.4140 1
792.4145 1
792.4150 1
792.4155 1
792.4160 1
792.4165 1
792.4170 1
792.4175 1
792.4180 1
792.4185 1
792.4190 1
792.4195 1
792.4200 1
792.4205 1
792.4210 1
792.4215 1
792.4220 1
792.4225 1
792.4230 1
792.4235 1
792.4240 1
792.4245 1
792.4250 1
792.4255 1
792.4260 1
792.4265 1
792.4270 1
792.4275 1
792.4280 1
792.4285 1
792.4290 1
792.4295 1
792.4300 1
792.4305 1
792.4310 1
792.4315 1
792.4320 1
792.4325 1
792.4330 1
792.4335 1
792.4340 1
792.4345 1
792.4350 1
792.4355 1
792.4360 1
792.4365 1
792.4370 1
792.4375 1
792.4380 1
792.4385 1
792.4390 1
792.4395 1
792.4400 1
792.4405 1
792.4410 1
792.4415 1
792.4420 1
792.4425 1
792.4430 1
792.4435 1
792.4440 1
792.4445 1
792.4450 1
792.4455 1
792.4460 1
792.4465 1
792.4470 1
792.4475 1
792.4480 1
792.4485 1
792.4490 1
792.4495 1
792.4500 1
792.4505 1
792.4510 1
792.4515 1
792.4520 1
792.4525 1
792.4530 1
792.4535 1
792.4540 1
792.4545 1
792.4550 1
792.4555 1
792.4560 1
792.4565 1
792.4570 1
792.4575 1
792.4580 1
792.4585 1
792.4590 1
792.4595 1
792.4600 1
792.4605 1
792.4610 1
792.4615 1
792.4620 1
792.4625 1
792.4630 1
792.4635 1
792.4640 1
792.4645 1
792.4650 1
792.4655 1
792.4660 1
792.4665 1
792.4670 1
792.4675 1
792.4680 1
792.4685 1
792.4690 1
792.4695 1
792.4700 1
792.4705 1
792.4710 1
792.4715 1
792.4720 1
792.4725 1
792.4730 1
792.4735 1
792.4740 1
792.4745 1
792.4750 1
792.4755 1
792.4760 1
792.4765 1
792.4770 1
792.4775 1
792.4780 1
792.4785 1
792.4790 1
792.4795 1
792.4800 1
792.4805 1
792.4810 1
792.4815 1
792.4820 1
792.4825 1
792.4830 1
792.4835 1
792.4840 1
792.4845 1
792.4850 1
792.4855 1
792.4860 1
792.4865 1
792.4870 1
792.4875 1
792.4880 1
792.4885 1
792.4890 1
792.4895 1
792.4900 1
792.4905 1
792.4910 1
792.4915 1
792.4920 1
792.4925 1
792.4930 1
792.4935 1
792.4940 1
792.4945 1
792.4950 1
792.4955 1
792.4960 1
792.4965 1
792.4970 1
792.4975 1
792.4980 1
792.4985 1
792.4990 1
792.4995 1
792.5000 0
792.5005 0
792.5010 0
